Cytomass frequency sweep file

File creation date:	7/12/2018
File creation time:	4:20:14 PM

Sweep parameters
Centre frequency (Hz):	73591.270593
Sweep range (Hz):	60000.000000
Excitation amplitude (V):	4.600000
Number of points:	256
Step time (s):	0.100000


Fit parameters
Q factor:	3.176701
Prior reference phase (deg):	-2.191048
Phase offset (deg):	-0.228178
New reference phase (deg):	-1.962870
Reference frequency (Hz):	73591.270593
Peak amplitude frequency (Hz):	71789.149460


Sweep data
Frequency (Hz)	Amplitude (V)	Phase (deg)
43513.994491	16.393600	97.265800
43748.369491	16.383700	97.233500
43982.744491	16.299500	96.532400
44217.119491	16.620500	97.838600
44451.494491	16.485000	96.698300
44685.869491	16.433900	95.877800
44920.244491	16.698900	95.450200
45154.619491	16.743400	95.809700
45388.994491	16.350400	94.547700
45623.369491	16.816200	94.217800
45857.744491	16.866500	93.996100
46092.119491	16.785800	93.182600
46326.494491	16.853900	93.308800
46560.869491	17.135800	92.530900
46795.244491	17.201600	92.189400
47029.619491	16.859000	92.368700
47263.994491	16.982700	92.050600
47498.369491	17.097900	91.727000
47732.744491	17.379700	91.791400
47967.119491	17.359000	90.771200
48201.494491	17.303800	89.954600
48435.869491	17.607900	90.183300
48670.244491	17.726900	89.378700
48904.619491	17.776400	89.025000
49138.994491	17.793200	89.523000
49373.369491	17.740900	88.818900
49607.744491	18.064700	88.023100
49842.119491	18.062300	89.003500
50076.494491	17.796300	87.891500
50310.869491	18.088000	85.570000
50545.244491	18.012200	87.326600
50779.619491	18.369200	85.964200
51013.994491	18.292600	84.624700
51248.369491	18.423800	84.743100
51482.744491	18.537700	83.345600
51717.119491	18.578400	83.707100
51951.494491	18.507400	83.554800
52185.869491	18.440700	82.218400
52420.244491	19.049200	81.624900
52654.619491	18.905800	82.352600
52888.994491	19.065100	81.750500
53123.369491	18.914200	81.917600
53357.744491	19.441500	81.703600
53592.119491	18.995100	79.531200
53826.494491	19.322500	78.829100
54060.869491	19.069800	78.463500
54295.244491	19.593700	78.606300
54529.619491	19.390600	78.251600
54763.994491	19.760300	77.831700
54998.369491	19.764600	75.992900
55232.744491	19.648900	76.400100
55467.119491	20.169200	75.323500
55701.494491	20.410800	75.941800
55935.869491	20.134000	74.779900
56170.244491	20.503200	73.827600
56404.619491	20.446100	74.476600
56638.994491	20.879000	73.367400
56873.369491	20.369500	72.374100
57107.744491	21.147900	73.673300
57342.119491	20.488900	71.627800
57576.494491	20.908700	69.911700
57810.869491	20.745400	70.208300
58045.244491	21.445300	69.053400
58279.619491	20.859800	67.925100
58513.994491	21.481600	67.842000
58748.369491	21.434300	66.920300
58982.744491	21.496000	67.393800
59217.119491	21.462500	66.314600
59451.494491	21.819200	65.509300
59685.869491	21.992500	64.093700
59920.244491	22.114100	64.253400
60154.619491	22.180600	64.208900
60388.994491	22.558900	61.668300
60623.369491	22.892900	62.290100
60857.744491	23.010200	62.301900
61092.119491	22.567200	60.787200
61326.494491	22.209600	59.781000
61560.869491	22.814200	57.752800
61795.244491	23.764100	57.412900
62029.619491	23.414500	56.890400
62263.994491	23.852900	55.363000
62498.369491	23.280700	55.345900
62732.744491	23.986500	53.355900
62967.119491	23.764300	52.988000
63201.494491	24.082900	52.130200
63435.869491	23.790500	51.732500
63670.244491	24.522400	51.352800
63904.619491	24.506100	48.650900
64138.994491	24.730900	49.899400
64373.369491	24.209000	48.199600
64607.744491	24.772200	45.521000
64842.119491	25.234200	45.846500
65076.494491	24.969100	45.429800
65310.869491	25.381400	44.486200
65545.244491	25.298200	41.636600
65779.619491	25.317300	42.055200
66013.994491	25.418700	39.332400
66248.369491	25.346200	39.139500
66482.744491	25.475400	37.484300
66717.119491	25.573500	37.982100
66951.494491	25.903800	36.301500
67185.869491	26.133800	34.778300
67420.244491	25.783400	33.828900
67654.619491	26.314300	32.242200
67888.994491	26.769300	31.735200
68123.369491	25.963700	29.152400
68357.744491	26.923400	29.565300
68592.119491	26.179700	27.124800
68826.494491	26.450600	27.052700
69060.869491	26.806900	25.595300
69295.244491	25.942800	23.778800
69529.619491	26.354800	21.750600
69763.994491	26.783900	19.352100
69998.369491	26.594200	18.896700
70232.744491	26.542300	18.371500
70467.119491	26.375000	18.271200
70701.494491	27.163600	16.814600
70935.869491	25.679000	15.399600
71170.244491	26.231600	13.981500
71404.619491	25.610400	11.830500
71638.994491	26.030200	11.204700
71873.369491	26.086700	9.511930
72107.744491	25.568800	9.208820
72342.119491	25.698900	7.084390
72576.494491	25.531100	4.227380
72810.869491	25.341600	4.525990
73045.244491	24.894500	3.468730
73279.619491	25.143800	1.435120
73513.994491	25.734000	1.709370
73748.369491	25.697300	-1.347040
73982.744491	24.774600	-3.396250
74217.119491	24.461100	-1.829940
74451.494491	24.608200	-5.803940
74685.869491	25.119100	-4.929050
74920.244491	23.880400	-7.730870
75154.619491	24.052000	-9.680580
75388.994491	23.839000	-9.353160
75623.369491	23.239500	-11.588900
75857.744491	22.967900	-13.394500
76092.119491	23.210200	-15.481100
76326.494491	22.491300	-14.974400
76560.869491	22.641300	-16.643100
76795.244491	22.473600	-18.935900
77029.619491	21.753400	-19.095500
77263.994491	22.623200	-21.240300
77498.369491	21.956600	-21.681000
77732.744491	21.626500	-22.670200
77967.119491	20.763800	-23.132400
78201.494491	20.610800	-25.675100
78435.869491	20.416200	-27.175900
78670.244491	20.317100	-27.599900
78904.619491	19.929500	-30.390400
79138.994491	19.428200	-29.211700
79373.369491	19.211800	-30.135600
79607.744491	19.082800	-31.549100
79842.119491	19.395500	-32.953400
80076.494491	19.398500	-33.354600
80310.869491	18.476000	-35.188700
80545.244491	18.257600	-34.707500
80779.619491	18.379100	-36.646200
81013.994491	17.356500	-38.052100
81248.369491	17.409000	-39.444900
81482.744491	16.927800	-40.030800
81717.119491	17.072600	-39.940300
81951.494491	16.728800	-41.728600
82185.869491	16.670500	-42.649800
82420.244491	16.018100	-42.517600
82654.619491	16.002500	-42.743400
82888.994491	15.745900	-44.933300
83123.369491	15.778700	-46.390500
83357.744491	15.467200	-46.934000
83592.119491	15.177200	-46.974900
83826.494491	14.725700	-47.548400
84060.869491	14.496000	-47.764700
84295.244491	14.591300	-48.889700
84529.619491	14.114700	-50.814900
84763.994491	14.213300	-50.020200
84998.369491	14.014700	-50.660900
85232.744491	13.836200	-51.437100
85467.119491	13.216600	-52.970900
85701.494491	13.665000	-53.825600
85935.869491	13.221600	-53.990000
86170.244491	12.592300	-56.598800
86404.619491	13.289100	-56.289300
86638.994491	12.081200	-56.390300
86873.369491	12.549400	-58.027600
87107.744491	12.464500	-55.976300
87342.119491	12.212100	-58.921100
87576.494491	12.017800	-61.011400
87810.869491	11.949700	-61.173400
88045.244491	12.257100	-59.586100
88279.619491	11.519100	-60.503500
88513.994491	11.237400	-62.175600
88748.369491	11.478800	-62.585400
88982.744491	11.296500	-62.717000
89217.119491	10.811400	-64.448600
89451.494491	10.658000	-63.579000
89685.869491	10.627600	-66.169300
89920.244491	10.696500	-65.689300
90154.619491	10.299600	-65.512100
90388.994491	10.448600	-65.492700
90623.369491	10.114700	-66.524300
90857.744491	9.827120	-67.717500
91092.119491	9.818200	-69.400400
91326.494491	9.548490	-70.469600
91560.869491	9.681460	-71.164600
91795.244491	9.540580	-68.357100
92029.619491	9.366650	-70.568300
92263.994491	8.877080	-73.698200
92498.369491	9.117410	-72.406700
92732.744491	8.721190	-71.455500
92967.119491	8.568540	-71.883900
93201.494491	8.604970	-73.302300
93435.869491	8.425310	-72.990500
93670.244491	8.470620	-73.973500
93904.619491	8.533340	-72.533900
94138.994491	8.191350	-74.688600
94373.369491	8.118660	-74.770500
94607.744491	8.133960	-76.215800
94842.119491	7.889500	-75.978500
95076.494491	7.717470	-76.006200
95310.869491	7.782170	-76.707200
95545.244491	7.492800	-74.790300
95779.619491	7.464280	-77.040200
96013.994491	7.456210	-76.367000
96248.369491	7.216260	-78.269200
96482.744491	7.465770	-79.786400
96717.119491	7.335460	-80.784100
96951.494491	7.187980	-81.581600
97185.869491	7.175310	-78.888400
97420.244491	6.961110	-79.863000
97654.619491	6.859090	-81.713600
97888.994491	6.839150	-82.712400
98123.369491	6.817330	-83.110500
98357.744491	6.533120	-83.259500
98592.119491	6.472060	-81.606500
98826.494491	6.461480	-82.406600
99060.869491	6.320920	-83.285100
99295.244491	6.364360	-83.717300
99529.619491	6.232090	-83.671600
99763.994491	6.196590	-85.155300
99998.369491	6.152000	-84.395500
100232.744491	6.096470	-87.203600
100467.119491	5.937600	-84.634500
100701.494491	6.019070	-84.909600
100935.869491	5.689110	-85.791200
101170.244491	5.841330	-86.712500
101404.619491	5.655540	-88.846600
101638.994491	5.691090	-88.133400
101873.369491	5.774750	-87.405900
102107.744491	5.481160	-89.214900
102342.119491	5.475560	-87.769700
102576.494491	5.700520	-89.221200
102810.869491	5.510140	-87.473600
103045.244491	5.295610	-90.212800
103279.619491	5.474700	-89.878400
