Cytomass frequency sweep file

File creation date:	7/12/2018
File creation time:	4:30:08 PM

Sweep parameters
Centre frequency (Hz):	73002.389932
Sweep range (Hz):	60000.000000
Excitation amplitude (V):	4.600000
Number of points:	256
Step time (s):	0.100000


Fit parameters
Q factor:	3.182647
Prior reference phase (deg):	-2.726182
Phase offset (deg):	0.050299
New reference phase (deg):	-2.776481
Reference frequency (Hz):	73002.389932
Peak amplitude frequency (Hz):	71370.417819


Sweep data
Frequency (Hz)	Amplitude (V)	Phase (deg)
42998.927506	16.376700	96.617900
43233.302506	16.425900	94.982600
43467.677506	16.377200	96.513800
43702.052506	16.782800	95.333000
43936.427506	16.650600	95.790700
44170.802506	16.700900	95.075900
44405.177506	16.536400	94.404200
44639.552506	16.776300	94.308500
44873.927506	16.786000	93.557600
45108.302506	16.843500	94.540400
45342.677506	16.704000	93.833200
45577.052506	16.531000	92.059100
45811.427506	16.787300	92.853300
46045.802506	16.873500	93.007900
46280.177506	16.627200	93.019600
46514.552506	16.913000	92.059000
46748.927506	17.050600	92.629800
46983.302506	17.067500	90.108100
47217.677506	17.180700	90.572500
47452.052506	17.715600	91.228100
47686.427506	17.619200	88.938700
47920.802506	17.455200	90.058900
48155.177506	17.415900	89.407800
48389.552506	17.767300	89.239800
48623.927506	17.444400	88.115400
48858.302506	17.912800	87.170500
49092.677506	17.709500	87.843500
49327.052506	17.754400	87.343600
49561.427506	17.909500	88.337900
49795.802506	18.056900	86.692200
50030.177506	18.233500	86.523500
50264.552506	18.102400	85.458100
50498.927506	18.139500	85.183100
50733.302506	18.161200	87.068100
50967.677506	18.784500	84.691000
51202.052506	18.612100	84.317200
51436.427506	18.683700	82.926600
51670.802506	18.845900	82.532000
51905.177506	18.664100	82.559400
52139.552506	19.176600	82.469300
52373.927506	18.956100	82.731900
52608.302506	19.134200	80.987100
52842.677506	18.862300	79.170100
53077.052506	18.939000	79.977200
53311.427506	19.509500	78.811800
53545.802506	19.588200	78.732000
53780.177506	19.226600	78.645000
54014.552506	19.724900	78.190900
54248.927506	19.836600	78.933700
54483.302506	19.592500	77.165100
54717.677506	19.950600	76.129600
54952.052506	20.041400	75.706300
55186.427506	20.215500	74.777900
55420.802506	20.023500	74.458500
55655.177506	20.030700	74.771900
55889.552506	20.087900	74.031800
56123.927506	20.386700	73.554600
56358.302506	20.494600	72.651100
56592.677506	20.291100	71.680800
56827.052506	20.602700	71.184800
57061.427506	20.888900	69.194700
57295.802506	20.846900	69.928100
57530.177506	21.586500	69.905100
57764.552506	21.431100	68.454100
57998.927506	20.910600	68.486200
58233.302506	20.834200	67.434900
58467.677506	21.801400	67.842500
58702.052506	21.964700	66.063900
58936.427506	21.574800	64.302500
59170.802506	22.554400	64.304400
59405.177506	22.020300	64.042500
59639.552506	22.373700	62.903900
59873.927506	22.853100	62.264700
60108.302506	22.362300	62.198700
60342.677506	22.249400	59.884200
60577.052506	22.580700	61.976900
60811.427506	23.300700	59.929000
61045.802506	23.175900	58.442400
61280.177506	23.049800	56.493800
61514.552506	23.250500	57.234700
61748.927506	23.957200	56.633700
61983.302506	23.654300	54.917300
62217.677506	24.100600	54.580400
62452.052506	23.533600	52.480100
62686.427506	24.493600	53.051700
62920.802506	24.198300	50.653500
63155.177506	24.023600	50.250900
63389.552506	24.340400	49.749700
63623.927506	24.347300	47.680400
63858.302506	24.773500	48.178900
64092.677506	25.253800	46.813800
64327.052506	24.329000	45.510200
64561.427506	24.653500	45.612200
64795.802506	24.682800	43.919400
65030.177506	25.614100	41.979800
65264.552506	25.232300	40.764100
65498.927506	25.706200	40.228400
65733.302506	25.865000	39.933100
65967.677506	25.481000	38.883800
66202.052506	25.635700	37.837400
66436.427506	25.826500	35.423400
66670.802506	26.092400	35.360000
66905.177506	25.288900	33.315700
67139.552506	26.096600	33.036900
67373.927506	26.396600	32.336100
67608.302506	26.154900	30.391500
67842.677506	25.735900	28.942500
68077.052506	26.303500	29.210800
68311.427506	26.012100	27.221800
68545.802506	25.915200	24.757000
68780.177506	26.105200	23.784700
69014.552506	26.260100	23.300500
69248.927506	26.277400	22.037900
69483.302506	27.017100	19.536900
69717.677506	26.328000	17.388500
69952.052506	26.524700	18.693700
70186.427506	26.101600	17.146000
70420.802506	26.162900	15.122200
70655.177506	26.429300	14.018500
70889.552506	25.601900	12.120100
71123.927506	25.440300	9.982820
71358.302506	26.259300	10.026100
71592.677506	25.879800	6.534300
71827.052506	25.476800	5.875520
72061.427506	25.722800	6.772860
72295.802506	25.745500	4.214710
72530.177506	25.204900	1.615290
72764.552506	25.092400	1.338670
72998.927506	25.022500	0.519318
73233.302506	25.209800	-2.857500
73467.677506	24.465300	-5.108050
73702.052506	24.751400	-5.108420
73936.427506	25.043100	-6.035920
74170.802506	24.048700	-8.744650
74405.177506	23.702800	-7.183900
74639.552506	23.828900	-10.375500
74873.927506	24.148400	-12.192500
75108.302506	23.807500	-11.850500
75342.677506	23.968000	-11.951300
75577.052506	22.878200	-13.498600
75811.427506	22.373600	-16.198600
76045.802506	22.693000	-16.685800
76280.177506	21.889700	-20.348800
76514.552506	21.881900	-19.959900
76748.927506	22.104300	-19.452200
76983.302506	21.367000	-22.091700
77217.677506	21.232400	-21.674600
77452.052506	20.922200	-22.513600
77686.427506	20.828400	-25.588300
77920.802506	20.434300	-26.072100
78155.177506	20.826600	-28.761500
78389.552506	20.116300	-30.239900
78623.927506	19.914800	-29.607300
78858.302506	20.094700	-29.860500
79092.677506	19.373300	-32.144700
79327.052506	19.346400	-33.134100
79561.427506	18.464600	-32.736700
79795.802506	18.986800	-34.848500
80030.177506	17.753900	-34.263300
80264.552506	17.941000	-36.612200
80498.927506	17.945000	-37.013800
80733.302506	17.240900	-37.696900
80967.677506	17.162700	-38.777700
81202.052506	17.417600	-40.318300
81436.427506	17.192200	-40.742200
81670.802506	16.716100	-42.906300
81905.177506	17.022400	-43.579800
82139.552506	16.155400	-42.185700
82373.927506	15.888700	-43.945200
82608.302506	15.489500	-44.377900
82842.677506	15.293300	-44.771800
83077.052506	15.563500	-48.893700
83311.427506	14.832000	-48.107200
83545.802506	15.005100	-50.616000
83780.177506	14.828000	-49.452900
84014.552506	14.609500	-49.447500
84248.927506	14.520200	-51.725100
84483.302506	14.189000	-49.933100
84717.677506	13.715100	-53.335500
84952.052506	13.781400	-52.477900
85186.427506	13.218400	-54.174400
85420.802506	13.317100	-57.030800
85655.177506	12.907600	-56.339300
85889.552506	12.814900	-55.293200
86123.927506	12.812500	-55.675600
86358.302506	12.699200	-58.519700
86592.677506	12.283300	-56.539300
86827.052506	12.278900	-57.943200
87061.427506	12.156400	-58.247300
87295.802506	11.859100	-59.479700
87530.177506	11.654300	-60.492300
87764.552506	11.714000	-61.388800
87998.927506	11.528300	-63.165300
88233.302506	11.495900	-59.356200
88467.677506	10.997900	-62.718400
88702.052506	11.054200	-63.800400
88936.427506	11.005900	-64.291200
89170.802506	10.874600	-64.487600
89405.177506	10.348900	-64.121900
89639.552506	10.156500	-65.434600
89873.927506	10.326700	-66.546700
90108.302506	9.921000	-67.503500
90342.677506	10.279600	-67.788600
90577.052506	9.727310	-69.159600
90811.427506	9.786280	-67.442000
91045.802506	9.509940	-67.392000
91280.177506	9.184010	-70.213200
91514.552506	9.293550	-70.094900
91748.927506	9.403930	-71.234300
91983.302506	9.455830	-71.034000
92217.677506	8.865380	-70.162200
92452.052506	8.814640	-71.338400
92686.427506	8.871760	-74.164800
92920.802506	9.000610	-71.605800
93155.177506	8.383040	-71.281600
93389.552506	8.487510	-73.817800
93623.927506	8.428680	-74.718600
93858.302506	8.216880	-75.122500
94092.677506	8.322030	-75.210800
94327.052506	8.133260	-76.104300
94561.427506	8.091940	-73.883900
94795.802506	7.965050	-75.864400
95030.177506	7.739140	-75.739000
95264.552506	7.658250	-75.041200
95498.927506	7.623120	-76.887400
95733.302506	7.432150	-78.797300
95967.677506	7.212100	-78.346900
96202.052506	7.236320	-79.326900
96436.427506	6.981480	-79.776100
96670.802506	7.090030	-79.062300
96905.177506	7.365610	-81.125000
97139.552506	7.190590	-80.136700
97373.927506	7.046000	-80.932500
97608.302506	6.718890	-80.551500
97842.677506	6.521280	-81.707300
98077.052506	6.665440	-81.893100
98311.427506	6.521260	-82.233500
98545.802506	6.444570	-87.063000
98780.177506	6.293500	-83.482400
99014.552506	6.490320	-84.347500
99248.927506	6.559090	-85.311400
99483.302506	6.064080	-83.282900
99717.677506	6.135050	-84.298800
99952.052506	6.318830	-83.035200
100186.427506	6.036930	-86.328900
100420.802506	6.078330	-87.023700
100655.177506	5.653180	-85.482700
100889.552506	5.850800	-86.481000
101123.927506	5.872120	-87.798200
101358.302506	5.702990	-89.158600
101592.677506	5.665260	-85.280700
101827.052506	5.765320	-87.194100
102061.427506	5.345250	-88.434500
102295.802506	5.525670	-91.792600
102530.177506	5.590690	-88.200700
102764.552506	5.291480	-90.313000
